Frequency (Hz)	Level (dB)
43.066406	-48.713169
86.132813	-61.671249
129.199219	-68.489685
172.265625	-68.365326
215.332031	-66.684837
258.398438	-65.453117
301.464844	-64.998474
344.531250	-65.051651
387.597656	-65.315742
430.664063	-65.345215
473.730469	-65.188896
516.796875	-65.027756
559.863281	-64.991127
602.929688	-64.851257
645.996094	-64.655777
689.062500	-64.656723
732.128906	-64.466133
775.195313	-64.348038
818.261719	-64.298233
861.328125	-64.248901
904.394531	-64.132957
947.460938	-64.072906
990.527344	-64.036636
1033.593750	-64.062874
1076.660156	-64.070488
1119.726563	-64.013702
1162.792969	-64.004135
1205.859375	-63.892624
1248.925781	-64.014374
1291.992188	-64.056076
1335.058594	-63.949593
1378.125000	-63.949402
1421.191406	-63.974815
1464.257813	-63.984039
1507.324219	-64.020790
1550.390625	-63.962872
1593.457031	-63.943073
1636.523438	-64.113152
1679.589844	-64.107262
1722.656250	-64.011795
1765.722656	-64.064705
1808.789063	-64.037308
1851.855469	-63.883614
1894.921875	-63.177483
1937.988281	-62.443130
1981.054688	-60.750202
2024.121094	-59.849598
2067.187500	-59.360378
2110.253906	-57.797802
2153.320313	-56.164612
2196.386719	-56.377094
2239.453125	-55.207512
2282.519531	-55.886433
2325.585938	-56.229485
2368.652344	-52.398884
2411.718750	-49.376030
2454.785156	-48.647999
2497.851563	-49.160049
2540.917969	-49.986000
2583.984375	-50.332298
2627.050781	-48.843956
2670.117188	-48.554150
2713.183594	-50.686298
2756.250000	-49.902275
2799.316406	-48.450687
2842.382813	-50.543316
2885.449219	-51.408989
2928.515625	-49.890720
2971.582031	-51.620739
3014.648438	-54.361115
3057.714844	-53.216515
3100.781250	-52.284451
3143.847656	-53.265026
3186.914063	-52.884998
3229.980469	-53.984280
3273.046875	-55.969528
3316.113281	-57.194462
3359.179688	-58.973728
3402.246094	-58.796627
3445.312500	-57.977478
3488.378906	-58.354874
3531.445313	-58.894615
3574.511719	-59.784386
3617.578125	-60.809662
3660.644531	-62.897282
3703.710938	-61.856663
3746.777344	-61.544445
3789.843750	-62.622921
3832.910156	-64.065353
3875.976563	-64.821236
3919.042969	-65.172577
3962.109375	-65.032753
4005.175781	-64.556854
4048.242188	-64.703064
4091.308594	-64.568726
4134.375000	-65.159355
4177.441406	-65.279884
4220.507813	-64.572502
4263.574219	-65.363808
4306.640625	-66.108162
4349.707031	-66.327812
4392.773438	-66.023651
4435.839844	-65.967957
4478.906250	-65.322655
4521.972656	-64.154572
4565.039063	-63.395813
4608.105469	-64.076813
4651.171875	-65.281708
4694.238281	-65.914490
4737.304688	-65.790825
4780.371094	-63.944748
4823.437500	-62.946980
4866.503906	-64.022240
4909.570313	-64.550644
4952.636719	-63.864758
4995.703125	-63.355488
5038.769531	-63.699265
5081.835938	-63.320923
5124.902344	-64.371071
5167.968750	-65.458839
5211.035156	-65.912056
5254.101563	-65.632500
5297.167969	-64.587204
5340.234375	-62.359081
5383.300781	-59.134975
5426.367188	-59.786633
5469.433594	-63.583469
5512.500000	-65.112602
5555.566406	-64.241104
5598.632813	-63.493118
5641.699219	-63.235542
5684.765625	-63.818039
5727.832031	-64.945831
5770.898438	-64.795303
5813.964844	-65.929398
5857.031250	-65.631386
5900.097656	-65.182579
5943.164063	-64.364700
5986.230469	-65.589653
6029.296875	-66.619514
6072.363281	-65.679070
6115.429688	-65.531525
6158.496094	-66.744606
6201.562500	-67.226021
6244.628906	-67.087067
6287.695313	-67.557625
6330.761719	-68.038582
6373.828125	-67.801254
6416.894531	-68.054550
6459.960938	-67.955864
6503.027344	-68.085922
6546.093750	-68.053955
6589.160156	-68.269646
6632.226563	-68.325310
6675.292969	-67.588829
6718.359375	-65.848358
6761.425781	-65.844437
6804.492188	-66.988007
6847.558594	-67.204323
6890.625000	-67.720573
6933.691406	-67.893303
6976.757813	-67.656784
7019.824219	-68.086769
7062.890625	-68.293686
7105.957031	-67.656693
7149.023438	-67.849068
7192.089844	-66.931915
7235.156250	-66.741516
7278.222656	-67.454735
7321.289063	-67.794769
7364.355469	-68.380295
7407.421875	-69.349854
7450.488281	-69.535110
7493.554688	-69.436134
7536.621094	-69.570267
7579.687500	-69.397491
7622.753906	-69.475426
7665.820313	-69.661270
7708.886719	-69.148193
7751.953125	-69.012321
7795.019531	-69.145073
7838.085938	-69.063545
7881.152344	-69.524879
7924.218750	-70.104012
7967.285156	-70.589516
8010.351563	-70.588982
8053.417969	-70.445816
8096.484375	-70.493454
8139.550781	-70.499344
8182.617188	-70.799965
8225.683594	-70.960129
8268.750000	-70.924057
8311.816406	-71.068756
8354.882813	-71.052628
8397.949219	-71.054871
8441.015625	-71.063461
8484.082031	-71.395622
8527.148438	-71.328339
8570.214844	-71.385422
8613.281250	-71.470604
8656.347656	-71.413551
8699.414063	-71.501839
8742.480469	-71.494057
8785.546875	-71.422150
8828.613281	-71.404259
8871.679688	-71.486115
8914.746094	-71.509315
8957.812500	-71.796837
9000.878906	-71.803329
9043.945313	-71.717545
9087.011719	-71.833473
9130.078125	-71.936378
9173.144531	-71.985062
9216.210938	-71.989952
9259.277344	-72.025261
9302.343750	-72.109039
9345.410156	-72.109085
9388.476563	-72.100098
9431.542969	-72.132240
9474.609375	-72.068680
9517.675781	-72.246094
9560.742188	-72.278984
9603.808594	-72.295151
9646.875000	-72.464043
9689.941406	-72.352875
9733.007813	-72.321587
9776.074219	-72.449226
9819.140625	-72.567429
9862.207031	-72.638214
9905.273438	-72.867104
9948.339844	-72.661652
9991.406250	-72.660843
10034.472656	-72.611893
10077.539063	-72.734398
10120.605469	-72.704704
10163.671875	-72.756599
10206.738281	-72.796356
10249.804688	-72.841225
10292.871094	-72.825974
10335.937500	-72.987350
10379.003906	-73.042366
10422.070313	-72.923454
10465.136719	-72.855438
10508.203125	-72.929932
10551.269531	-72.997299
10594.335938	-73.214340
10637.402344	-73.261253
10680.468750	-73.221809
10723.535156	-73.295349
10766.601563	-73.309853
10809.667969	-73.316261
10852.734375	-73.314926
10895.800781	-73.540749
10938.867188	-73.584930
10981.933594	-73.462143
11025.000000	-73.383774
11068.066406	-73.475418
11111.132813	-73.483124
11154.199219	-73.579437
11197.265625	-73.662430
11240.332031	-73.609764
11283.398438	-73.749687
11326.464844	-73.616783
11369.531250	-73.692604
11412.597656	-73.651505
11455.664063	-73.693848
11498.730469	-73.672592
11541.796875	-73.670738
11584.863281	-73.802658
11627.929688	-73.920876
11670.996094	-73.851128
11714.062500	-73.793785
11757.128906	-73.824738
11800.195313	-73.876862
11843.261719	-74.112030
11886.328125	-74.009346
11929.394531	-73.945503
11972.460938	-74.088928
12015.527344	-74.122093
12058.593750	-74.038170
12101.660156	-74.013748
12144.726563	-74.047188
12187.792969	-74.183495
12230.859375	-74.145767
12273.925781	-74.055237
12316.992188	-74.186226
12360.058594	-74.300713
12403.125000	-74.342331
12446.191406	-74.272339
12489.257813	-74.342819
12532.324219	-74.372925
12575.390625	-74.310684
12618.457031	-74.322212
12661.523438	-74.542747
12704.589844	-74.498093
12747.656250	-74.455208
12790.722656	-74.445259
12833.789063	-74.589882
12876.855469	-74.802696
12919.921875	-74.715179
12962.988281	-74.692680
13006.054688	-74.553070
13049.121094	-74.577026
13092.187500	-74.716026
13135.253906	-74.689987
13178.320313	-74.694092
13221.386719	-74.657463
13264.453125	-74.839142
13307.519531	-74.907150
13350.585938	-74.727409
13393.652344	-74.969536
13436.718750	-75.118202
13479.785156	-75.063301
13522.851563	-75.093765
13565.917969	-75.208092
13608.984375	-75.059601
13652.050781	-74.889046
13695.117188	-75.133720
13738.183594	-75.037415
13781.250000	-75.017479
13824.316406	-75.147926
13867.382813	-75.199203
13910.449219	-75.152115
13953.515625	-75.113815
13996.582031	-75.160469
14039.648438	-75.180466
14082.714844	-75.165459
14125.781250	-75.038254
14168.847656	-75.155487
14211.914063	-75.209702
14254.980469	-75.277809
14298.046875	-75.221985
14341.113281	-75.146065
14384.179688	-75.318619
14427.246094	-75.217949
14470.312500	-75.228149
14513.378906	-75.307343
14556.445313	-75.518951
14599.511719	-75.648537
14642.578125	-75.649879
14685.644531	-75.574486
14728.710938	-75.592606
14771.777344	-75.594887
14814.843750	-75.561661
14857.910156	-75.549568
14900.976563	-75.522423
14944.042969	-75.430084
14987.109375	-75.503265
15030.175781	-75.497787
15073.242188	-75.629013
15116.308594	-75.498344
15159.375000	-75.737000
15202.441406	-75.765633
15245.507813	-75.662575
15288.574219	-75.790825
15331.640625	-75.835373
15374.707031	-75.727997
15417.773438	-75.742813
15460.839844	-75.826210
15503.906250	-75.829033
15546.972656	-75.863350
15590.039063	-75.795929
15633.105469	-75.789909
15676.171875	-75.946793
15719.238281	-75.915543
15762.304688	-75.879486
15805.371094	-75.843384
15848.437500	-76.054916
15891.503906	-76.250153
15934.570313	-76.063354
15977.636719	-76.027802
16020.703125	-76.115646
16063.769531	-76.164497
16106.835938	-76.033043
16149.902344	-76.037949
16192.968750	-76.255310
16236.035156	-76.106499
16279.101563	-75.979515
16322.167969	-76.222076
16365.234375	-76.311378
16408.300781	-76.332245
16451.367188	-76.239204
16494.433594	-76.282486
16537.500000	-76.342422
16580.566406	-76.207436
16623.632813	-76.127869
16666.699219	-76.171265
16709.765625	-76.164200
16752.832031	-76.182442
16795.898438	-76.250702
16838.964844	-76.359482
16882.031250	-76.345459
16925.097656	-76.260246
16968.164063	-76.234428
17011.230469	-76.252098
17054.296875	-76.425552
17097.363281	-76.340775
17140.429688	-76.260956
17183.496094	-76.396965
17226.562500	-76.613159
17269.628906	-76.556068
17312.695313	-76.523819
17355.761719	-76.403564
17398.828125	-76.444916
17441.894531	-76.542206
17484.960938	-76.300377
17528.027344	-76.234047
17571.093750	-76.526909
17614.160156	-76.644707
17657.226563	-76.632378
17700.292969	-76.483749
17743.359375	-76.452576
17786.425781	-76.345848
17829.492188	-76.430481
17872.558594	-76.368614
17915.625000	-76.525681
17958.691406	-76.563972
18001.757813	-76.567680
18044.824219	-76.604355
18087.890625	-76.671875
18130.957031	-76.592056
18174.023438	-76.773209
18217.089844	-76.714882
18260.156250	-76.585213
18303.222656	-76.624008
18346.289063	-76.716408
18389.355469	-76.703407
18432.421875	-76.539963
18475.488281	-76.538116
18518.554688	-76.410027
18561.621094	-76.530716
18604.687500	-76.636124
18647.753906	-76.506805
18690.820313	-76.367760
18733.886719	-76.429298
18776.953125	-76.596741
18820.019531	-76.634972
18863.085938	-76.710548
18906.152344	-76.840271
18949.218750	-76.744179
18992.285156	-76.622406
19035.351563	-76.712906
19078.417969	-76.537514
19121.484375	-76.605865
19164.550781	-76.729485
19207.617188	-76.778252
19250.683594	-76.663750
19293.750000	-76.639359
19336.816406	-76.547638
19379.882813	-76.572166
19422.949219	-76.747292
19466.015625	-76.840965
19509.082031	-76.841698
19552.148438	-76.667244
19595.214844	-76.712677
19638.281250	-76.696709
19681.347656	-76.788651
19724.414063	-76.796127
19767.480469	-76.729004
19810.546875	-76.574097
19853.613281	-76.543037
19896.679688	-76.677101
19939.746094	-76.775276
19982.812500	-76.903748
20025.878906	-76.630440
20068.945313	-76.680763
20112.011719	-76.833817
20155.078125	-76.963226
20198.144531	-76.781326
20241.210938	-76.728447
20284.277344	-76.821129
20327.343750	-76.774437
20370.410156	-76.794785
20413.476563	-76.708229
20456.542969	-76.738289
20499.609375	-76.713791
20542.675781	-76.721870
20585.742188	-76.692581
20628.808594	-76.931107
20671.875000	-76.830414
20714.941406	-77.001907
20758.007813	-76.795509
20801.074219	-76.766220
20844.140625	-76.729958
20887.207031	-76.882080
20930.273438	-77.003731
20973.339844	-76.821480
21016.406250	-76.909958
21059.472656	-76.979294
21102.539063	-76.803551
21145.605469	-76.873978
21188.671875	-77.016319
21231.738281	-77.099457
21274.804688	-77.012321
21317.871094	-77.046074
21360.937500	-77.164528
21404.003906	-77.153427
21447.070313	-76.961441
21490.136719	-76.961937
21533.203125	-76.882507
21576.269531	-76.801514
21619.335938	-76.808029
21662.402344	-76.707474
21705.468750	-76.922333
21748.535156	-76.949532
21791.601563	-76.990982
21834.667969	-76.800850
21877.734375	-76.653206
21920.800781	-76.937019
21963.867188	-76.876076
22006.933594	-76.838112
